Wavelength		Linestrength	  Gamma_air	 Gamma_self   Elower
1364.689275		1.860000E-20	  0.094400	  0.510000	136.761700
1368.597136		1.800000E-20	  0.093000	  0.510000	 79.496400
1370.966721		1.630000E-20	  0.101000	  0.435000	 23.794400
1380.629034		1.610000E-20	  0.093300	  0.480000	134.901600
1392.533501		1.500000E-20	  0.099700	  0.488000	136.761700
1362.428590		1.480000E-20	  0.083900	  0.490000	224.838400
1361.684244		1.330000E-20	  0.091000	  0.465000	173.365800
1382.728094		1.230000E-20	  0.087700	  0.363000	285.418600
1380.763336		1.190000E-20	  0.101000	  0.495000	 42.371700
1396.373041		1.170000E-20	  0.095000	  0.496000	224.838400
1395.004237		1.170000E-20	  0.095600	  0.473000	173.365800
1359.512348		1.080000E-20	  0.076800	  0.460000	325.347900
1362.359034		1.040000E-20	  0.092400	  0.450000	212.156400
1369.969783		1.000000E-20	  0.103200	  0.460000	 42.371700
1387.877645		9.920000E-21	  0.098000	  0.537000	 79.496400
1400.738920		9.880000E-21	  0.089900	  0.500000	325.347900
1360.839662		9.080000E-21	  0.083500	  0.466000	300.362300
1367.862208		8.840000E-21	  0.090600	  0.500000	134.901600
1383.886874		8.710000E-21	  0.088100	  0.440000	 23.794400
1404.937423		7.060000E-21	  0.089700	  0.460000	399.457500
1357.145283		6.980000E-21	  0.060500	  0.390000	447.252300
1382.471309		6.940000E-21	  0.095500	  0.434000	212.156400
1355.832947		6.820000E-21	  0.089700	  0.483000	399.457500
1399.537572		6.500000E-21	  0.090100	  0.470000	300.362300
1405.003447		6.460000E-21	  0.074200	  0.445000	447.252300
1367.577963		6.290000E-21	  0.096500	  0.488000	 70.090800
1385.116257		6.170000E-21	  0.055800	  0.335000	488.107700
1395.513597		5.930000E-21	  0.090300	  0.476000	212.156400
1365.382073		5.930000E-21	  0.091500	  0.496000	142.278500
1376.973018		5.770000E-21	  0.099200	  0.503000	 79.496400
1381.136241		5.450000E-21	  0.091300	  0.480000	136.163900
1382.951046		5.410000E-21	  0.083400	  0.441000	382.516900
1362.046453		4.880000E-21	  0.085000	  0.500000	222.052800
1361.092988		4.720000E-21	  0.077400	  0.414000	382.516900
1365.582479		4.680000E-21	  0.098000	  0.473000	 95.175900
1388.327925		4.640000E-21	  0.103000	  0.435000	 70.090800
1372.101422		4.320000E-21	  0.099000	  0.537000	 37.137100
1396.602123		4.240000E-21	  0.099000	  0.510000	222.052800
1364.626540		4.240000E-21	  0.080800	  0.420000	285.418600
1407.290253		4.070000E-21	  0.085500	  0.422000	446.510600
1382.642873		4.030000E-21	  0.078300	  0.383000	285.219300
1354.718223		4.030000E-21	  0.051100	  0.355000	586.243500
1409.506244		3.970000E-21	  0.059000	  0.418000	586.243500
1378.769481		3.940000E-21	  0.102300	  0.495000	 37.137100
1355.011619		3.820000E-21	  0.067600	  0.419000	552.911400
1392.185736		3.770000E-21	  0.097000	  0.464000	142.278500
1364.207224		3.550000E-21	  0.088000	  0.470000	206.301400
1353.155830		3.440000E-21	  0.090400	  0.450000	446.510600
1359.695573		3.430000E-21	  0.070000	  0.445000	326.625500
1355.798898		3.420000E-21	  0.081900	  0.391000	508.812000
1400.057974		3.410000E-21	  0.093500	  0.465000	275.497100
1358.423235		3.390000E-21	  0.089600	  0.412000	275.497100
1409.273406		3.250000E-21	  0.075400	  0.452000	552.911400
1400.636671		3.170000E-21	  0.084200	  0.533000	326.625500
1374.948438		3.130000E-21	  0.101600	  0.439000	  0.000000
1389.891692		3.070000E-21	  0.100000	  0.470000	 95.175900
1366.921489		2.900000E-21	  0.091200	  0.500000	136.163900
1372.297695		2.660000E-21	  0.104000	  0.540000	 42.371700
1407.535059		2.620000E-21	  0.080000	  0.420000	508.812000
1401.545320		2.610000E-21	  0.080000	  0.414000	382.516900
1385.909532		2.580000E-21	  0.060700	  0.375000	610.341100
1357.063636		2.340000E-21	  0.059500	  0.430000	446.696600
1388.138619		2.253000E-21	  0.054000	  0.320000	742.076200
1414.270453		2.240000E-21	  0.077000	  0.480000	704.214000
1405.037117		2.200000E-21	  0.080000	  0.470000	446.696600
1384.899340		2.190000E-21	  0.074400	  0.425000	508.812000
1380.153360		2.190000E-21	  0.094000	  0.485000	206.301400
1358.422454		2.180000E-21	  0.087900	  0.412000	315.779500
1378.929370		2.150000E-21	  0.090500	  0.490000	300.362300
1357.771298		2.110000E-21	  0.080200	  0.440000	416.208700
1401.326930		2.090000E-21	  0.090900	  0.450000	315.779500
1414.127616		2.080000E-21	  0.051100	  0.390000	744.162600
1352.476177		2.080000E-21	  0.041000	  0.325000	744.162600
1354.340619		2.060000E-21	  0.073000	  0.445000	648.978700
1386.408243		2.050000E-21	  0.090900	  0.498000	173.365800
1351.794356		2.050000E-21	  0.065300	  0.430000	704.214000
1394.646102		2.020000E-21	  0.092800	  0.500000	206.301400
1385.136581		2.020000E-21	  0.055800	  0.300000	488.134200
1382.767779		1.980000E-21	  0.094300	  0.475000	173.365800
1355.899276		1.970000E-21	  0.088100	  0.440000	446.510600
1373.422394		1.870000E-21	  0.097600	  0.535000	136.761700
1383.514720		1.850000E-21	  0.075100	  0.392000	383.842500
1378.569942		1.820000E-21	  0.102300	  0.470000	 23.794400
1412.314718		1.760000E-21	  0.073000	  0.450000	648.978700
1366.869446		1.710000E-21	  0.093600	  0.520000	173.365800
1404.423895		1.700000E-21	  0.085200	  0.480000	416.208700
1385.386921		1.690000E-21	  0.106900	  0.500000	 23.794400
1375.924195		1.660000E-21	  0.084700	  0.455000	300.362300
1371.295572		1.660000E-21	  0.094000	  0.535000	224.838400
1406.724067		1.640000E-21	  0.098200	  0.510000	224.838400
1392.329275		1.580000E-21	  0.107000	  0.375000	 42.371700
1360.269425		1.560000E-21	  0.080000	  0.425000	383.842500
1358.818666		1.560000E-21	  0.071500	  0.390000	610.341100
1399.563580		1.540000E-21	  0.102600	  0.470000	 79.496400
1362.822698		1.540000E-21	  0.071600	  0.360000	488.107700
1417.588620		1.510000E-21	  0.081200	  0.480000	782.409800
1382.702868		1.460000E-21	  0.098700	  0.434000	136.761700
1409.628592		1.430000E-21	  0.081900	  0.500000	542.905800
1371.721663		1.420000E-21	  0.082000	  0.470000	224.838400
1364.891242		1.420000E-21	  0.080600	  0.422000	285.219300
1437.782080		1.416000E-21	  0.088700	  0.525000	136.761700
1354.752935		1.350000E-21	  0.048700	  0.367000	586.479200
1378.538998		1.340000E-21	  0.095000	  0.514000	 79.496400
1353.714817		1.320000E-21	  0.080000	  0.445000	542.905800
1409.496167		1.310000E-21	  0.059000	  0.410000	586.479200
1450.610809		1.290000E-21	  0.089200	  0.483000	134.901600
1445.636434		1.254000E-21	  0.098000	  0.458000	 23.794400
1396.611522		1.230000E-21	  0.099500	  0.525000	173.365800
1409.941077		1.190000E-21	  0.080000	  0.485000	325.347900
1407.045086		1.190000E-21	  0.106200	  0.522000	134.901600
1383.115884		1.170000E-21	  0.095000	  0.483000	 95.175900
1441.497666		1.166000E-21	  0.093900	  0.514000	 79.496400
1400.378502		1.160000E-21	  0.097500	  0.523000	136.761700
1434.451903		1.159000E-21	  0.078000	  0.465000	224.838400
1377.238750		1.140000E-21	  0.084500	  0.455000	212.156400
1469.637024		1.117000E-21	  0.095000	  0.477000	136.761700
1388.453861		1.100000E-21	  0.086000	  0.467000	446.510600
1432.436437		1.079000E-21	  0.092000	  0.497000	173.365800
1397.269185		1.070000E-21	  0.099100	  0.484000	212.156400
1445.844144		1.033000E-21	  0.074000	  0.421000	285.418600
1419.647571		1.030000E-21	  0.084700	  0.495000	285.418600
1386.395284		1.030000E-21	  0.066900	  0.369000	756.724700
1374.423101		1.030000E-21	  0.098000	  0.493000	142.278500
1418.905701		1.028000E-21	  0.041000	  0.370000	920.168000
1404.160330		1.020000E-21	  0.093000	  0.449000	446.510600
1368.599446		1.010000E-21	  0.074700	  0.391000	325.347900
1350.418537		9.960000E-22	  0.035000	  0.260000	920.168000
1418.978789		9.840000E-22	  0.061000	  0.378000	885.600200
1355.256259		9.720000E-22	  0.069500	  0.365000	756.724700
1350.251480		9.480000E-22	  0.053000	  0.315000	885.600200
1414.888505		9.440000E-22	  0.077200	  0.453000	447.252300
1384.890681		9.320000E-22	  0.078000	  0.484000	315.779500
1381.893630		9.320000E-22	  0.098000	  0.483000	 95.175900
1420.014704		9.240000E-22	  0.079100	  0.420000	842.356500
1455.329436		9.197000E-22	  0.100400	  0.450000	 42.371700
1414.705055		9.000000E-22	  0.094400	  0.500000	300.362300
1408.971206		8.960000E-22	  0.068100	  0.355000	610.341100
1389.008922		8.960000E-22	  0.055000	  0.304000	888.598600
1385.772729		8.960000E-22	  0.060700	  0.351000	610.114400
1382.516045		8.960000E-22	  0.092900	  0.525000	399.457500
1347.858900		8.960000E-22	  0.086500	  0.444000	842.356500
1401.757323		8.870000E-22	  0.078200	  0.403000	383.842500
1406.896712		8.840000E-22	  0.080400	  0.425000	503.968100
1431.199835		8.595000E-22	  0.068100	  0.418000	325.347900
1442.925187		8.535000E-22	  0.095000	  0.480000	 42.371700
1395.853666		8.150000E-22	  0.090900	  0.484000	300.362300
1380.467333		8.030000E-22	  0.089900	  0.450000	446.510600
1372.922724		8.030000E-22	  0.088500	  0.475000	552.911400
1369.256872		8.030000E-22	  0.099500	  0.480000	 95.175900
1414.608321		7.630000E-22	  0.066000	  0.366000	756.724700
1463.235087		7.610000E-22	  0.092000	  0.505000	 79.496400
1388.138067		7.510000E-22	  0.045100	  0.391000	742.073000
1427.322155		7.180000E-22	  0.081000	  0.457000	300.362300
1382.865874		7.140000E-22	  0.080800	  0.434000	503.968100
1414.130310		7.060000E-22	  0.050300	  0.356000	744.063700
1352.485959		7.060000E-22	  0.040800	  0.305000	744.063700
1382.063322		7.020000E-22	  0.089000	  0.460000	648.978700
1366.358799		6.980000E-22	  0.061500	  0.393000	447.252300
1368.210313		6.940000E-22	  0.099000	  0.515000	136.761700
1352.538348		6.940000E-22	  0.060400	  0.340000	709.608200
1357.498434		6.820000E-22	  0.074000	  0.370000	503.968100
1375.863950		6.740000E-22	  0.100000	  0.455000	 70.090800
1351.505428		6.740000E-22	  0.088200	  0.450000	661.548900
1429.947610		6.733000E-22	  0.084000	  0.454000	212.156400
1460.338787		6.632000E-22	  0.096000	  0.448000	 23.794400
1436.127864		6.547000E-22	  0.085000	  0.514000	134.901600
1414.104909		6.530000E-22	  0.066300	  0.430000	709.608200
1395.631514		6.370000E-22	  0.091800	  0.465000	399.457500
1384.443799		6.370000E-22	  0.102000	  0.460000	 70.090800
1363.541097		6.370000E-22	  0.088800	  0.475000	399.457500
1350.404780		6.330000E-22	  0.094000	  0.475000	602.773500
1423.949447		6.250000E-22	  0.087000	  0.450000	382.516900
1415.321628		6.250000E-22	  0.097000	  0.520000	212.156400
1390.947406		6.210000E-22	  0.100100	  0.490000	142.278500
1391.672756		5.931000E-22	  0.041300	  0.195000	1045.057800
1411.258108		5.930000E-22	  0.088000	  0.480000	602.773500
1413.671632		5.890000E-22	  0.080000	  0.415000	661.548900
1400.388476		5.890000E-22	  0.093800	  0.475000	446.510600
1403.108058		5.810000E-22	  0.100400	  0.450000	142.278500
1393.895805		5.770000E-22	  0.103500	  0.460000	 95.175900
1419.276359		5.730000E-22	  0.063000	  0.398000	586.243500
1439.456744		5.702000E-22	  0.061000	  0.332000	488.107700
1365.482497		5.690000E-22	  0.085000	  0.435000	325.347900
1356.323930		5.690000E-22	  0.091300	  0.455000	315.779500
1452.240127		5.664000E-22	  0.089000	  0.468000	212.156400
1428.173886		5.610000E-22	  0.060000	  0.375000	447.252300
1350.691466		5.610000E-22	  0.080000	  0.420000	931.237000
1392.680128		5.560000E-22	  0.098000	  0.500000	224.838400
1423.409890		5.530000E-22	  0.080200	  0.460000	399.457500
1348.507880		5.370000E-22	  0.096300	  0.510000	136.761700
1371.016053		5.330000E-22	  0.085700	  0.481000	222.052800
1431.648696		5.306000E-22	  0.069500	  0.400000	488.107700
1375.054165		5.280000E-22	  0.086500	  0.445000	416.208700
1420.769799		5.240000E-22	  0.074000	  0.395000	931.237000
1400.013838		5.240000E-22	  0.096100	  0.510000	134.901600
1373.056989		5.240000E-22	  0.077300	  0.383000	382.516900
1362.737446		5.240000E-22	  0.067600	  0.412000	488.134200
1374.887777		5.160000E-22	  0.090800	  0.460000	142.278500
1348.858187		5.160000E-22	  0.063000	  0.340000	1006.115700
1374.441678		5.120000E-22	  0.082000	  0.410000	508.812000
1377.023832		5.040000E-22	  0.088100	  0.484000	325.347900
1383.065490		4.960000E-22	  0.097000	  0.496000	275.497100
1441.475085		4.917000E-22	  0.097900	  0.470000	 70.090800
1445.725137		4.804000E-22	  0.076000	  0.385000	382.516900
1467.051547		4.726000E-22	  0.089000	  0.452000	212.156400
1404.991538		4.720000E-22	  0.090800	  0.465000	300.362300
1357.837410		4.680000E-22	  0.076000	  0.347000	503.968100
1423.951783		4.640000E-22	  0.051700	  0.315000	1079.079200
1413.530195		4.640000E-22	  0.085000	  0.465000	602.773500
1423.177606		4.560000E-22	  0.066000	  0.408000	1006.115700
1421.570203		4.560000E-22	  0.086000	  0.470000	552.911400
1437.929558		4.535000E-22	  0.087000	  0.480000	142.278500
1423.799992		4.520000E-22	  0.033000	  0.322000	1114.549300
1381.824749		4.520000E-22	  0.102200	  0.500000	  0.000000
1376.554373		4.520000E-22	  0.091400	  0.475000	224.838400
1361.303547		4.520000E-22	  0.054100	  0.285000	742.076200
1410.641391		4.480000E-22	  0.090300	  0.500000	326.625500
1405.244660		4.480000E-22	  0.090500	  0.472000	222.052800
1376.149739		4.440000E-22	  0.088000	  0.410000	206.301400
1362.739452		4.440000E-22	  0.084900	  0.456000	134.901600
1359.215423		4.320000E-22	  0.072000	  0.360000	610.114400
1348.104513		4.320000E-22	  0.043800	  0.300000	1079.079200
1348.427214		4.291000E-22	  0.025100	  0.280000	1114.549300
1451.128969		4.286000E-22	  0.089000	  0.465000	136.163900
1364.676298		4.280000E-22	  0.080900	  0.420000	447.252300
1392.172911		4.070000E-22	  0.101000	  0.492000	134.901600
1357.703615		4.070000E-22	  0.058100	  0.310000	888.598600
1432.553639		4.068000E-22	  0.089000	  0.450000	508.812000
1363.937285		4.030000E-22	  0.052500	  0.355000	586.243500
1450.696288		4.025000E-22	  0.097400	  0.480000	 79.496400
1354.992032		4.000000E-22	  0.070900	  0.410000	285.418600
1378.718561		3.990000E-22	  0.089700	  0.455000	315.779500
1395.789459		3.950000E-22	  0.105000	  0.500000	 37.137100
1418.680510		3.940000E-22	  0.087500	  0.440000	446.510600
1390.677687		3.940000E-22	  0.096000	  0.529000	275.497100
1434.392717		3.917000E-22	  0.083800	  0.480000	222.052800
1437.542755		3.820000E-22	  0.094800	  0.450000	 95.175900
1421.158176		3.820000E-22	  0.076200	  0.400000	382.516900
1351.440072		3.790000E-22	  0.067600	  0.325000	816.694200
1405.384679		3.750000E-22	  0.088800	  0.455000	399.457500
1374.000789		3.740000E-22	  0.074500	  0.408000	648.978700
1365.036352		3.630000E-22	  0.092000	  0.470000	275.497100
1419.024292		3.600000E-22	  0.060000	  0.410000	882.890300
1411.052863		3.580000E-22	  0.096100	  0.468000	206.301400
1354.824255		3.580000E-22	  0.075000	  0.385000	757.780100
1465.189228		3.503000E-22	  0.100700	  0.430000	 70.090800
1368.910233		3.490000E-22	  0.074000	  0.400000	326.625500
1445.769192		3.446000E-22	  0.075000	  0.397000	285.219300
1407.095814		3.440000E-22	  0.086000	  0.441000	382.516900
1418.905088		3.420000E-22	  0.039200	  0.315000	920.209800
1408.323003		3.410000E-22	  0.100800	  0.525000	136.163900
1372.302317		3.390000E-22	  0.092900	  0.412000	300.362300
1349.931588		3.390000E-22	  0.054700	  0.360000	882.890300
1425.711362		3.370000E-22	  0.080100	  0.430000	285.418600
1402.915084		3.350000E-22	  0.078200	  0.435000	552.911400
1350.412101		3.350000E-22	  0.035000	  0.280000	920.209800
1467.823036		3.324000E-22	  0.092200	  0.470000	142.278500
1359.770434		3.300000E-22	  0.104000	  0.530000	 23.794400
1425.329840		3.270000E-22	  0.048000	  0.340000	586.243500
1394.175292		3.270000E-22	  0.088800	  0.420000	300.362300
1424.133921		3.240000E-22	  0.052000	  0.360000	744.162600
1407.308788		3.240000E-22	  0.100900	  0.446000	212.156400
1390.020010		3.190000E-22	  0.057500	  0.320000	1059.835300
1388.085723		3.170000E-22	  0.087000	  0.404000	931.237000
1398.211689		3.150000E-22	  0.095600	  0.478000	315.779500
1419.357991		3.110000E-22	  0.062500	  0.410000	552.911400
1380.125165		3.050000E-22	  0.094900	  0.487000	222.052800
1452.974245		3.035000E-22	  0.097100	  0.445000	 37.137100
1389.018994		3.000000E-22	  0.055300	  0.308000	888.632600
1445.514567		2.984000E-22	  0.098600	  0.510000	 37.137100
1367.924021		2.980000E-22	  0.092200	  0.470000	326.625500
1414.583866		2.920000E-22	  0.073500	  0.440000	446.696600
1403.738380		2.920000E-22	  0.089400	  0.450000	508.812000
1408.941969		2.910000E-22	  0.070800	  0.340000	610.114400
1431.211871		2.850000E-22	  0.070900	  0.430000	326.625500
1387.054933		2.820000E-22	  0.073800	  0.333000	757.780100
1428.440388		2.790000E-22	  0.075300	  0.425000	1201.921000
1415.430271		2.740000E-22	  0.080300	  0.420000	508.812000
1427.709215		2.720000E-22	  0.088100	  0.514000	275.497100
1431.624429		2.698000E-22	  0.087400	  0.460000	206.301400
1393.536573		2.680000E-22	  0.099500	  0.488000	206.301400
1414.722368		2.650000E-22	  0.070000	  0.390000	757.780100
1348.977934		2.650000E-22	  0.061600	  0.333000	1122.708300
1419.163675		2.640000E-22	  0.090000	  0.485000	285.219300
1437.222818		2.604000E-22	  0.078800	  0.440000	610.341100
1431.912299		2.588000E-22	  0.088900	  0.470000	648.978700
1397.224845		2.550000E-22	  0.096400	  0.500000	136.163900
1439.670786		2.534000E-22	  0.065800	  0.347000	610.341100
1367.144955		2.490000E-22	  0.091000	  0.485000	222.052800
1425.605156		2.450000E-22	  0.086000	  0.430000	383.842500
1465.331222		2.440000E-22	  0.095300	  0.365000	 95.175900
1432.351260		2.424000E-22	  0.050000	  0.260000	742.076200
1461.270489		2.416000E-22	  0.096700	  0.500000	173.365800
1390.764683		2.410000E-22	  0.086300	  0.460000	842.356500
1450.295235		2.406000E-22	  0.098400	  0.443000	  0.000000
1404.529983		2.390000E-22	  0.090300	  0.460000	285.418600
1366.223208		2.390000E-22	  0.062500	  0.390000	446.696600
1354.119391		2.380000E-22	  0.061400	  0.340000	1059.835300
1400.540138		2.360000E-22	  0.090000	  0.510000	275.497100
1379.324812		2.340000E-22	  0.097000	  0.501000	 79.496400
1401.046279		2.320000E-22	  0.085000	  0.480000	552.911400
1418.125184		2.310000E-22	  0.091800	  0.500000	416.208700
1466.431226		2.279000E-22	  0.076300	  0.365000	382.516900
1382.711936		2.270000E-22	  0.088400	  0.435000	782.409800
1354.686401		2.250000E-22	  0.100900	  0.465000	 70.090800
1395.339055		2.240000E-22	  0.099100	  0.435000	 70.090800
1382.709676		2.220000E-22	  0.101600	  0.480000	 37.137100
1364.704692		2.220000E-22	  0.073700	  0.371000	552.911400
1444.364606		2.182000E-22	  0.060000	  0.320000	742.076200
1435.245402		2.181000E-22	  0.088800	  0.495000	136.163900
1416.958852		2.180000E-22	  0.059200	  0.290000	888.598600
1349.276966		2.120000E-22	  0.090600	  0.460000	602.773500
1425.985386		2.110000E-22	  0.067100	  0.391000	1122.708300
1361.798126		2.090000E-22	  0.039200	  0.300000	744.162600
1403.308129		2.080000E-22	  0.085900	  0.463000	648.978700
1372.485618		2.050000E-22	  0.075500	  0.458000	447.252300
1402.141095		2.020000E-22	  0.094000	  0.450000	206.301400
1447.132086		2.005000E-22	  0.083000	  0.418000	508.812000
1391.672897		1.977000E-22	  0.034200	  0.371000	1045.058300
1428.178798		1.960000E-22	  0.060400	  0.445000	446.696600
1419.400640		1.940000E-22	  0.062900	  0.370000	586.479200
1361.159358		1.940000E-22	  0.062300	  0.400000	586.243500
1378.653381		1.910000E-22	  0.082300	  0.470000	704.214000
1439.465965		1.900000E-22	  0.061200	  0.360000	488.134200
1399.044103		1.900000E-22	  0.083000	  0.455000	416.208700
1370.492120		1.880000E-22	  0.068500	  0.345000	610.341100
1352.000363		1.880000E-22	  0.065200	  0.330000	927.743900
1449.840149		1.843000E-22	  0.088000	  0.465000	206.301400
1423.477648		1.820000E-22	  0.081500	  0.450000	982.911600
1347.911899		1.820000E-22	  0.059300	  0.330000	488.107700
1417.682634		1.810000E-22	  0.073500	  0.380000	816.694200
1373.300183		1.810000E-22	  0.079700	  0.401000	383.842500
1422.851363		1.800000E-22	  0.059000	  0.310000	1059.835300
1364.238613		1.800000E-22	  0.088300	  0.450000	399.457500
1412.188728		1.780000E-22	  0.071800	  0.385000	648.978700
1360.562210		1.780000E-22	  0.068100	  0.390000	704.214000
1423.850773		1.760000E-22	  0.086600	  0.490000	315.779500
1373.566891		1.760000E-22	  0.074800	  0.411000	503.968100
1442.229430		1.754000E-22	  0.081200	  0.450000	756.724700
1398.501239		1.750000E-22	  0.082000	  0.460000	782.409800
1354.552415		1.750000E-22	  0.084200	  0.460000	602.773500
1428.944994		1.749000E-22	  0.028000	  0.240000	1327.109600
1378.876584		1.740000E-22	  0.099300	  0.520000	212.156400
1431.676459		1.720000E-22	  0.066900	  0.410000	488.134200
1415.803057		1.720000E-22	  0.064300	  0.393000	704.214000
1428.980872		1.703000E-22	  0.045500	  0.310000	1293.633700
1412.593724		1.700000E-22	  0.076600	  0.430000	552.911400
1392.805691		1.698000E-22	  0.045600	  0.265000	1216.194400
1378.504621		1.680000E-22	  0.087000	  0.410000	842.356500
1422.659433		1.670000E-22	  0.071000	  0.430000	704.214000
1406.183740		1.670000E-22	  0.072000	  0.440000	704.214000
1442.848126		1.667000E-22	  0.095500	  0.500000	 79.496400
1371.252861		1.660000E-22	  0.064300	  0.320000	756.724700
1429.022408		1.619000E-22	  0.042200	  0.325000	920.168000
1411.567184		1.610000E-22	  0.080000	  0.460000	648.978700
1401.601537		1.610000E-22	  0.090300	  0.460000	382.516900
1353.709843		1.610000E-22	  0.079600	  0.440000	782.409800
1466.050219		1.605000E-22	  0.086500	  0.368000	206.301400
1446.225922		1.592000E-22	  0.077900	  0.385000	383.842500
1381.952713		1.590000E-22	  0.088400	  0.457000	602.773500
1423.229641		1.550000E-22	  0.075000	  0.407000	416.208700
1361.306327		1.550000E-22	  0.051300	  0.391000	742.073000
1378.145287		1.520000E-22	  0.094000	  0.480000	142.278500
1422.724367		1.510000E-22	  0.041500	  0.296000	744.162600
1397.199708		1.510000E-22	  0.089200	  0.440000	315.779500
1381.001046		1.510000E-22	  0.091900	  0.505000	542.905800
1423.827155		1.480000E-22	  0.029300	  0.268000	1114.531300
1448.213910		1.452000E-22	  0.087000	  0.422000	300.362300
1428.195089		1.450000E-22	  0.087100	  0.443000	503.968100
1423.947973		1.450000E-22	  0.048800	  0.315000	1080.385300
1409.965543		1.440000E-22	  0.069500	  0.375000	610.341100
1393.059197		1.440000E-22	  0.088100	  0.450000	602.773500
1387.172225		1.430000E-22	  0.084100	  0.405000	661.548900
1348.426483		1.428000E-22	  0.028300	  0.298000	1114.531300
1414.774163		1.420000E-22	  0.063500	  0.358000	488.107700
1457.744452		1.399000E-22	  0.100200	  0.470000	 95.175900
1348.371414		1.390000E-22	  0.041000	  0.270000	1080.385300
1446.888087		1.388000E-22	  0.084100	  0.425000	300.362300
1429.612233		1.371000E-22	  0.072200	  0.390000	885.600200
1410.457935		1.370000E-22	  0.088500	  0.490000	399.457500
1398.076836		1.360000E-22	  0.086600	  0.460000	416.208700
1418.052337		1.350000E-22	  0.074700	  0.371000	816.694200
1401.440553		1.330000E-22	  0.074100	  0.375000	648.978700
1357.685665		1.330000E-22	  0.056600	  0.270000	888.632600
1354.948861		1.330000E-22	  0.070100	  0.390000	285.219300
1426.422094		1.300000E-22	  0.082200	  0.433000	1050.157600
1420.624254		1.290000E-22	  0.080400	  0.380000	383.842500
1420.544116		1.280000E-22	  0.071700	  0.374000	927.743900
1411.504664		1.280000E-22	  0.084400	  0.462000	842.356500
1382.347352		1.280000E-22	  0.098100	  0.510000	134.901600
1440.502043		1.278000E-22	  0.088000	  0.433000	610.341100
1368.646525		1.270000E-22	  0.100200	  0.510000	 70.090800
1370.940904		1.250000E-22	  0.069300	  0.410000	586.243500
1364.025084		1.240000E-22	  0.050800	  0.330000	586.479200
1362.994158		1.220000E-22	  0.088700	  0.460000	136.163900
1434.446059		1.215000E-22	  0.096900	  0.450000	446.510600
1427.810283		1.210000E-22	  0.094000	  0.450000	382.516900
1386.757247		1.190000E-22	  0.075400	  0.385000	927.743900
1363.415229		1.190000E-22	  0.074000	  0.440000	446.696600
1353.051071		1.190000E-22	  0.073700	  0.400000	648.978700
1450.138113		1.184000E-22	  0.065300	  0.385000	888.598600
1425.888280		1.170000E-22	  0.076600	  0.410000	285.219300
1362.108771		1.160000E-22	  0.078200	  0.440000	542.905800
1408.828874		1.150000E-22	  0.082700	  0.430000	782.409800
1400.892369		1.150000E-22	  0.076400	  0.447000	542.905800
1350.850405		1.150000E-22	  0.058300	  0.350000	1255.166600
1387.526184		1.140000E-22	  0.082800	  0.410000	661.548900
1374.630194		1.130000E-22	  0.083700	  0.450000	326.625500
1419.479571		1.120000E-22	  0.071000	  0.430000	542.905800
1405.419695		1.120000E-22	  0.091000	  0.475000	842.356500
1376.202689		1.120000E-22	  0.084000	  0.430000	661.548900
1357.019978		1.120000E-22	  0.081000	  0.390000	756.724700
1409.077571		1.110000E-22	  0.075500	  0.410000	782.409800
1358.243833		1.100000E-22	  0.082400	  0.439000	610.114400
1432.949766		1.096000E-22	  0.079000	  0.400000	1282.918800
1366.687162		1.090000E-22	  0.078500	  0.425000	885.600200
1395.692385		1.084000E-22	  0.033000	  0.200000	1394.814100
1428.655007		1.074000E-22	  0.086800	  0.460000	212.156400
1451.283455		1.071000E-22	  0.080000	  0.397000	931.237000
1425.320700		1.070000E-22	  0.046000	  0.325000	586.479200
1424.079232		1.070000E-22	  0.052000	  0.382000	744.063700
1404.105861		1.070000E-22	  0.089700	  0.420000	383.842500
1390.909184		1.070000E-22	  0.054900	  0.330000	1255.166600
1389.958166		1.070000E-22	  0.053000	  0.329000	1059.646600
1437.034123		1.064000E-22	  0.078800	  0.420000	610.114400
1443.076412		1.063000E-22	  0.091500	  0.500000	224.838400
1415.435179		1.050000E-22	  0.069100	  0.400000	756.724700
1424.922333		1.040000E-22	  0.095500	  0.500000	446.510600
1374.078215		1.040000E-22	  0.067900	  0.361000	1006.115700
1368.131243		1.040000E-22	  0.083500	  0.467000	416.208700
1386.550260		1.030000E-22	  0.079300	  0.380000	1122.708300
1364.548471		1.030000E-22	  0.071300	  0.433000	704.214000
1439.679937		1.024000E-22	  0.065000	  0.366000	756.724700
1424.000030		1.020000E-22	  0.100000	  0.440000	315.779500
1408.509298		1.020000E-22	  0.083500	  0.446000	416.208700
1432.509664		1.014000E-22	  0.052000	  0.265000	888.598600
1405.839377		1.010000E-22	  0.090000	  0.475000	285.219300
1372.736848		1.010000E-22	  0.072200	  0.350000	931.237000
